time (s)	coil I (A)	last det (V)	int current (uC)
9049.591244	1.219241	0.215141	514.519592
9049.592316	1.719060	0.215141	2357.352051
9049.593351	1.682465	0.215141	4098.703125
9049.594235	1.635989	0.215141	5544.916992
9049.595217	1.585807	0.215141	7102.179199
9049.596277	1.534526	0.215141	8728.777344
9049.597185	1.491229	0.215141	10082.813477
9049.598054	1.450624	0.215141	11343.405273
9049.599147	1.405748	0.215141	12879.887695
9049.600144	1.364095	0.215141	14239.890625
9049.601043	0.726936	0.215141	14893.406250
9049.602034	0.094885	0.215141	14987.437500
9049.603088	0.090571	0.215141	15082.899414
9049.603977	0.090535	0.215141	15163.384766
9049.604860	0.090597	0.215141	15243.381836
9049.605925	0.090612	0.215141	15339.882812
9049.606896	0.090487	0.215141	15427.746094
9049.607758	0.090494	0.215141	15505.751953
9049.608794	0.090571	0.215141	15599.583984
9049.609827	0.090560	0.215141	15693.132812
9049.610707	0.090535	0.215141	15772.803711
9050.677695	1.193771	0.126735	508.546356
9050.678685	1.717657	0.126735	2209.027100
9050.679741	1.686962	0.126735	3990.458496
9050.680622	1.639493	0.126735	5434.852051
9050.681565	1.591014	0.126735	6935.178711
9050.682649	1.538163	0.126735	8602.546875
9050.683587	1.493774	0.126735	10003.707031
9050.684461	1.453861	0.126735	11274.381836
9050.685531	1.408879	0.126735	12781.882812
9050.686550	1.366183	0.126735	14174.023437
9050.687453	0.782585	0.126735	14880.698242
9050.688426	0.097405	0.126735	14975.472656
9050.689472	0.090535	0.126735	15070.171875
9050.690388	0.090542	0.126735	15153.108398
9050.691248	0.090476	0.126735	15230.917969
9050.692338	0.090652	0.126735	15329.728516
9050.693326	0.090571	0.126735	15419.212891
9050.694213	0.090502	0.126735	15499.488281
9050.695221	0.090630	0.126735	15590.842773
9050.696261	0.090623	0.126735	15685.089844
9050.697150	0.090516	0.126735	15765.558594
9051.629078	1.284294	0.223274	654.990173
9051.630026	1.720957	0.223274	2286.457520
9051.630893	1.693297	0.223274	3754.545898
9051.631912	1.639288	0.223274	5424.980469
9051.632958	1.586495	0.223274	7084.454590
9051.633849	1.542572	0.223274	8458.886719
9051.634787	1.498341	0.223274	9864.330078
9051.635859	1.449807	0.223274	11418.523437
9051.636804	1.409780	0.223274	12750.765625
9051.637674	1.372914	0.223274	13945.200195
9051.638744	0.784395	0.223274	14784.501953
9051.639752	0.093402	0.223274	14878.651367
9051.640646	0.090520	0.223274	14959.576172
9051.641616	0.090637	0.223274	15047.494141
9051.642652	0.090601	0.223274	15141.356445
9051.643568	0.090516	0.223274	15224.269531
9051.644429	0.090630	0.223274	15302.301758
9051.645502	0.090652	0.223274	15399.571289
9051.646503	0.090546	0.223274	15490.207031
9051.647382	0.090546	0.223274	15569.796875
9051.648367	0.090590	0.223274	15659.027344
9052.715556	1.288656	0.122514	666.235168
9052.716522	1.721638	0.122514	2329.337646
9052.717394	1.691514	0.122514	3804.337402
9052.718406	1.638095	0.122514	5462.088867
9052.719466	1.584521	0.122514	7141.681641
9052.720363	1.540503	0.122514	8523.512695
9052.721267	1.496631	0.122514	9876.466797
9052.722353	1.448470	0.122514	11449.505859
9052.723310	1.408447	0.122514	12797.389648
9052.724178	1.371672	0.122514	13988.000977
9052.725213	0.778074	0.122514	14793.307617
9052.726243	0.093021	0.122514	14889.119141
9052.727129	0.090465	0.122514	14969.271484
9052.728077	0.090509	0.122514	15055.074219
9052.729123	0.090630	0.122514	15149.873047
9052.730055	0.090509	0.122514	15234.227539
9052.730918	0.090487	0.122514	15312.318359
9052.731974	0.090637	0.122514	15408.031250
9052.732979	0.090531	0.122514	15499.014648
9052.733861	0.090527	0.122514	15578.859375
9052.734827	0.090546	0.122514	15666.326172
9053.678017	1.196785	0.213256	514.617371
9053.678880	1.714435	0.213256	1994.174561
9053.679899	1.694509	0.213256	3720.879395
9053.680802	1.646056	0.213256	5207.267578
9053.681680	1.600715	0.213256	6612.695801
9053.682707	1.550914	0.213256	8205.484375
9053.683626	1.506742	0.213256	9590.179687
9053.684508	1.465876	0.213256	10883.083008
9053.685443	1.425659	0.213256	12216.074219
9053.686431	1.384574	0.213256	13584.033203
9053.687357	1.254529	0.213256	14745.726562
9053.688245	0.207100	0.213256	14929.630859
9053.689244	0.090527	0.213256	15020.067383
9053.690142	0.090538	0.213256	15101.371094
9053.691063	0.090553	0.213256	15184.770508
9053.691922	0.090579	0.213256	15262.577148
9053.692951	0.090524	0.213256	15355.725586
9053.693838	0.090549	0.213256	15436.042969
9053.694713	0.090564	0.213256	15515.286133
9053.695696	0.090531	0.213256	15604.278320
9053.696637	0.090483	0.213256	15689.422852
9054.742984	1.211847	0.154007	518.670471
9054.743869	1.716735	0.154007	2037.980713
9054.744732	1.697593	0.154007	3503.003418
9054.745849	1.642342	0.154007	5337.500000
9054.746758	1.595574	0.154007	6787.876465
9054.747624	1.552570	0.154007	8132.401367
9054.748716	1.500897	0.154007	9771.380859
9054.749694	1.456373	0.154007	11195.713867
9054.750570	1.418749	0.154007	12438.538086
9054.751458	1.380729	0.154007	13664.625000
9054.752566	1.010914	0.154007	14784.717773
9054.753446	0.119359	0.154007	14889.753906
9054.754305	0.090458	0.154007	14967.457031
9054.755375	0.090516	0.154007	15064.309570
9054.756343	0.090498	0.154007	15151.912109
9054.757207	0.090494	0.154007	15230.099609
9054.758065	0.090531	0.154007	15307.775391
9054.759159	0.090480	0.154007	15406.759766
9054.760063	0.090491	0.154007	15488.563477
9054.760939	0.090483	0.154007	15567.827148
9054.761927	0.090593	0.154007	15657.333008
9055.727049	1.214923	0.191587	528.491577
9055.727910	1.714636	0.191587	2004.793335
9055.729026	1.689532	0.191587	3890.311523
9055.729922	1.641105	0.191587	5360.741211
9055.730794	1.596471	0.191587	6752.863770
9055.731818	1.547205	0.191587	8337.201172
9055.732822	1.498634	0.191587	9841.830078
9055.733716	1.458025	0.191587	11145.304687
9055.734576	1.419221	0.191587	12365.834961
9055.735674	1.375261	0.191587	13875.872070
9055.736590	1.032338	0.191587	14821.493164
9055.737471	0.124285	0.191587	14930.988281
9055.738463	0.090641	0.191587	15020.904297
9055.739466	0.090513	0.191587	15111.688477
9055.740365	0.090590	0.191587	15193.128906
9055.741228	0.090582	0.191587	15271.301758
9055.742332	0.090612	0.191587	15371.336914
9055.743250	0.090428	0.191587	15454.350586
9055.744126	0.090593	0.191587	15533.709961
9055.745121	0.090652	0.191587	15623.908203
9055.746122	0.090553	0.191587	15714.551758
9056.772582	1.242839	0.195362	577.920288
9056.773457	1.717452	0.195362	2080.691162
9056.774320	1.698018	0.195362	3546.080322
9056.775402	1.642581	0.195362	5323.352539
9056.776347	1.594219	0.195362	6829.889160
9056.777227	1.550607	0.195362	8194.422852
9056.778193	1.505537	0.195362	9648.771484
9056.779220	1.457988	0.195362	11146.125000
9056.780109	1.419818	0.195362	12408.343750
9056.780973	1.383318	0.195362	13603.530273
9056.782052	1.061539	0.195362	14748.931641
9056.782990	0.124633	0.195362	14865.836914
9056.783860	0.090461	0.195362	14944.538086
9056.784841	0.090560	0.195362	15033.377930
9056.785865	0.090516	0.195362	15126.066406
9056.786736	0.090509	0.195362	15204.899414
9056.787595	0.090590	0.195362	15282.715820
9056.788622	0.090674	0.195362	15375.837891
9056.789568	0.090450	0.195362	15461.404297
9056.790440	0.090542	0.195362	15540.356445
9056.791365	0.090641	0.195362	15624.199219
9057.770938	1.204537	0.176940	510.723846
9057.772035	1.719456	0.176940	2396.966553
9057.772972	1.685907	0.176940	3976.661377
9057.773849	1.640072	0.176940	5415.004395
9057.774825	1.590700	0.176940	6967.527344
9057.775823	1.541129	0.176940	8505.574219
9057.776703	1.499568	0.176940	9825.194336
9057.777567	1.459200	0.176940	11085.943359
9057.778634	1.414797	0.176940	12595.532227
9057.779571	1.375642	0.176940	13884.508789
9057.780443	1.103415	0.176940	14846.687500
9057.781410	0.138999	0.176940	14981.099609
9057.782434	0.090447	0.176940	15073.716797
9057.783325	0.090524	0.176940	15154.373047
9057.784190	0.090568	0.176940	15232.713867
9057.785259	0.090604	0.176940	15329.569336
9057.786193	0.090494	0.176940	15414.090820
9057.787068	0.090538	0.176940	15493.311523
9057.788019	0.090549	0.176940	15579.423828
9057.789055	0.090461	0.176940	15673.141602
9057.789947	0.090480	0.176940	15753.849609
9058.810298	1.188527	0.187080	503.935303
9058.811270	1.713289	0.187080	2169.251709
9058.812307	1.687086	0.187080	3918.760254
9058.813210	1.639665	0.187080	5399.377930
9058.814076	1.594710	0.187080	6780.396484
9058.815160	1.542048	0.187080	8451.976562
9058.816104	1.497407	0.187080	9865.529297
9058.816983	1.457336	0.187080	11146.528320
9058.817933	1.417434	0.187080	12493.090820
9058.818972	1.373767	0.187080	13920.434570
9058.819865	1.030990	0.187080	14841.108398
9058.820731	0.125087	0.187080	14949.433594
9058.821789	0.090513	0.187080	15045.196289
9058.822719	0.090502	0.187080	15129.363281
9058.823591	0.090586	0.187080	15208.354492
9058.824518	0.090608	0.187080	15292.347656
9058.825580	0.090590	0.187080	15388.553711
9058.826454	0.090505	0.187080	15467.655273
9058.827319	0.090575	0.187080	15546.002930
9058.828338	0.090568	0.187080	15638.291016
9058.829306	0.090524	0.187080	15725.917969
9059.811856	1.275033	0.178354	640.066589
9059.812768	1.719727	0.178354	2208.457275
9059.813645	1.694436	0.178354	3694.477539
9059.814628	1.643533	0.178354	5310.070312
9059.815654	1.590037	0.178354	6941.447754
9059.816548	1.546406	0.178354	8323.934570
9059.817414	1.503783	0.178354	9626.210937
9059.818515	1.455231	0.178354	11228.419922
9059.819443	1.415581	0.178354	12542.079102
9059.820316	1.379070	0.178354	13746.006836
9059.821302	1.041010	0.178354	14772.442383
9059.822330	0.109904	0.178354	14885.422852
9059.823204	0.090491	0.178354	14964.511719
9059.824197	0.090648	0.178354	15054.525391
9059.825242	0.090549	0.178354	15149.149414
9059.826147	0.090549	0.178354	15231.096680
9059.827007	0.090524	0.178354	15308.947266
9059.828083	0.090593	0.178354	15406.425781
9059.829076	0.090520	0.178354	15496.312500
9059.829968	0.090560	0.178354	15577.092773
9059.830950	0.090656	0.178354	15666.116211
9060.850105	1.194097	0.177589	506.296997
9060.851183	1.718090	0.177589	2358.397461
9060.852206	1.682739	0.177589	4079.839844
9060.853081	1.636274	0.177589	5511.580078
9060.854061	1.586737	0.177589	7066.582520
9060.855110	1.535533	0.177589	8677.357422
9060.856021	1.491833	0.177589	10036.417969
9060.856898	1.451426	0.177589	11309.318359
9060.857978	1.406924	0.177589	12828.795898
9060.858980	1.364934	0.177589	14196.459961
9060.859882	0.757108	0.177589	14879.371094
9060.860895	0.095178	0.177589	14975.787109
9060.861950	0.090546	0.177589	15071.312500
9060.862832	0.090524	0.177589	15151.154297
9060.863713	0.090542	0.177589	15230.921875
9060.864805	0.090656	0.177589	15329.917969
9060.865762	0.090491	0.177589	15416.517578
9060.866629	0.090527	0.177589	15495.004883
9060.867692	0.090560	0.177589	15591.270508
9060.868730	0.090560	0.177589	15685.272461
9060.869621	0.090538	0.177589	15765.942383
9061.850546	1.197964	0.194629	501.946838
9061.851632	1.719064	0.194629	2368.850098
9061.852565	1.686771	0.194629	3942.607666
9061.853446	1.640468	0.194629	5387.859375
9061.854437	1.590568	0.194629	6964.111816
9061.855447	1.540261	0.194629	8519.775391
9061.856345	1.497803	0.194629	9864.802734
9061.857208	1.457699	0.194629	11122.796875
9061.858284	1.412970	0.194629	12643.152344
9061.859215	1.374056	0.194629	13922.398437
9061.860092	1.064597	0.194629	14856.049805
9061.861089	0.128335	0.194629	14984.000000
9061.862103	0.090527	0.194629	15075.794922
9061.862977	0.090667	0.194629	15155.037109
9061.863951	0.090667	0.194629	15243.346680
9061.865007	0.090546	0.194629	15338.962891
9061.865907	0.090549	0.194629	15420.457031
9061.866771	0.090535	0.194629	15498.678711
9061.867754	0.090674	0.194629	15587.811523
9061.868763	0.090575	0.194629	15679.201172
9061.869654	0.090546	0.194629	15759.876953
9062.891052	1.298818	0.173206	676.684387
9062.892054	1.720367	0.173206	2400.492432
9062.892933	1.688331	0.173206	3884.535645
9062.893945	1.636388	0.173206	5540.560547
9062.895007	1.582141	0.173206	7220.794434
9062.895903	1.537456	0.173206	8598.355469
9062.896767	1.494697	0.173206	9889.773437
9062.897872	1.447233	0.173206	11488.965820
9062.898843	1.406162	0.173206	12854.349609
9062.899711	1.369746	0.173206	14043.289062
9062.900775	0.687946	0.173206	14775.262695
9062.901815	0.092010	0.173206	14870.953125
9062.902701	0.090579	0.173206	14951.206055
9062.903619	0.090593	0.173206	15034.371094
9062.904676	0.090681	0.173206	15130.220703
9062.905621	0.090619	0.173206	15215.855469
9062.906482	0.090593	0.173206	15293.856445
9062.907510	0.090615	0.173206	15387.008789
9062.908534	0.090601	0.173206	15479.784180
9062.909422	0.090516	0.173206	15560.163086
9062.910356	0.090725	0.173206	15644.900391
9063.890360	1.199429	0.204248	503.760040
9063.891428	1.718551	0.204248	2339.172607
9063.892355	1.687456	0.204248	3903.444336
9063.893235	1.641504	0.204248	5347.967773
9063.894214	1.592069	0.204248	6906.603516
9063.895235	1.541528	0.204248	8480.503906
9063.896127	1.499099	0.204248	9817.700195
9063.896994	1.458812	0.204248	11082.490234
9063.898087	1.413234	0.204248	12627.154297
9063.899030	1.373478	0.204248	13922.343750
9063.899907	1.061345	0.204248	14853.143555
9063.900910	0.126442	0.204248	14979.964844
9063.901912	0.090494	0.204248	15070.640625
9063.902791	0.090597	0.204248	15150.275391
9063.903646	0.090659	0.204248	15227.789062
9063.904725	0.090692	0.204248	15325.645508
9063.905642	0.090582	0.204248	15408.708984
9063.906508	0.090623	0.204248	15487.188477
9063.907461	0.090637	0.204248	15573.565430
9063.908477	0.090564	0.204248	15665.578125
9063.909370	0.090601	0.204248	15746.484375
9064.928728	1.220292	0.190459	543.029846
9064.929601	1.715936	0.190459	2041.042236
9064.930538	1.695725	0.190459	3629.936523
9064.931605	1.641072	0.190459	5380.959961
9064.932484	1.594526	0.190459	6782.548828
9064.933356	1.551694	0.190459	8135.625977
9064.934382	1.502842	0.190459	9677.541992
9064.935352	1.459017	0.190459	11092.789062
9064.936227	1.421221	0.190459	12336.357422
9064.937119	1.383157	0.190459	13570.132812
9064.938218	1.088701	0.190459	14766.615234
9064.939121	0.129983	0.190459	14883.990234
9064.939985	0.090494	0.190459	14962.177734
9064.941035	0.090740	0.190459	15057.454102
9064.942006	0.090535	0.190459	15145.363281
9064.942878	0.090582	0.190459	15224.350586
9064.943749	0.090630	0.190459	15303.289062
9064.944869	0.090619	0.190459	15404.782227
9064.945745	0.090615	0.190459	15484.161133
9064.946600	0.090538	0.190459	15561.571289
9064.947661	0.090696	0.190459	15657.799805
9065.929148	1.190262	0.199197	504.671265
9065.930091	1.713021	0.199197	2120.050293
9065.931157	1.686786	0.199197	3918.164062
9065.932091	1.637754	0.199197	5447.826172
9065.932959	1.592172	0.199197	6829.831055
9065.934009	1.541338	0.199197	8448.236328
9065.935029	1.493529	0.199197	9971.635742
9065.935924	1.453206	0.199197	11272.254883
9065.936891	1.412498	0.199197	12638.139648
9065.937960	1.368003	0.199197	14100.535156
9065.938883	0.817603	0.199197	14855.182617
9065.939743	0.100122	0.199197	14941.287109
9065.940845	0.090703	0.199197	15041.242187
9065.941829	0.090557	0.199197	15130.349609
9065.942722	0.090575	0.199197	15211.233398
9065.943714	0.090784	0.199197	15301.291016
9065.944758	0.090696	0.199197	15395.977539
9065.945653	0.090674	0.199197	15477.130859
9065.946513	0.090656	0.199197	15555.094727
9065.947619	0.090648	0.199197	15655.351562
9065.948575	0.090593	0.199197	15741.958984
9066.967583	1.286349	0.195483	658.610596
9066.968533	1.720397	0.195483	2292.987549
9066.969400	1.691653	0.195483	3759.650635
9066.970458	1.636930	0.195483	5491.522461
9066.971476	1.584862	0.195483	7104.912109
9066.972363	1.541506	0.195483	8472.228516
9066.973332	1.496283	0.195483	9922.126953
9066.974400	1.447852	0.195483	11468.432617
9066.975326	1.408506	0.195483	12772.708984
9066.976190	1.371643	0.195483	13957.808594
9066.977240	0.770380	0.195483	14766.707031
9066.978276	0.093138	0.195483	14863.198242
9066.979154	0.090579	0.195483	14942.726562
9066.980125	0.090718	0.195483	15030.813477
9066.981179	0.090656	0.195483	15126.364258
9066.982090	0.090571	0.195483	15208.875000
9066.982951	0.090612	0.195483	15286.891602
9066.984053	0.090674	0.195483	15386.814453
9066.985045	0.090623	0.195483	15476.711914
9066.985938	0.090597	0.195483	15557.615234
9066.986921	0.090703	0.195483	15646.776367
9067.968958	1.190116	0.156601	504.609161
9067.969906	1.713124	0.156601	2128.650635
9067.970993	1.686141	0.156601	3961.486328
9067.971907	1.637325	0.156601	5458.001953
9067.972781	1.591388	0.156601	6848.875000
9067.973845	1.540067	0.156601	8487.505859
9067.974857	1.492302	0.156601	9997.715820
9067.975752	1.452316	0.156601	11297.538086
9067.976731	1.411124	0.156601	12679.028320
9067.977782	1.367186	0.156601	14115.941406
9067.978701	0.805331	0.156601	14856.040039
9067.979562	0.099423	0.156601	14941.642578
9067.980684	0.090645	0.156601	15043.345703
9067.981646	0.090597	0.156601	15130.500000
9067.982520	0.090575	0.156601	15209.662109
9067.983527	0.090626	0.156601	15300.922852
9067.984584	0.090641	0.156601	15396.730469
9067.985472	0.090516	0.156601	15477.109375
9067.986358	0.090590	0.156601	15557.372070
9067.987462	0.090714	0.156601	15657.520508
9067.988408	0.090487	0.156601	15743.121094
9069.014537	1.269240	0.177746	635.889038
9069.015419	1.718547	0.177746	2151.647949
9069.016349	1.692499	0.177746	3725.671875
9069.017422	1.636783	0.177746	5481.940430
9069.018367	1.588370	0.177746	6982.950195
9069.019232	1.545751	0.177746	8320.024414
9069.020299	1.495719	0.177746	9915.957031
9069.021326	1.449694	0.177746	11404.791992
9069.022206	1.411787	0.177746	12647.164062
9069.023188	1.372024	0.177746	13994.491211
9069.024244	0.753314	0.177746	14789.991211
9069.025166	0.095219	0.177746	14877.782227
9069.026023	0.090568	0.177746	14955.398437
9069.027069	0.090667	0.177746	15050.235352
9069.028091	0.090623	0.177746	15142.851562
9069.028978	0.090568	0.177746	15223.184570
9069.029952	0.090710	0.177746	15311.536133
9069.031003	0.090623	0.177746	15406.780273
9069.031914	0.090579	0.177746	15489.297852
9069.032774	0.090667	0.177746	15567.271484
9069.033857	0.090721	0.177746	15665.522461
9070.003757	1.290037	0.130917	674.689209
9070.004769	1.720078	0.130917	2415.408203
9070.005653	1.687196	0.130917	3906.889648
9070.006660	1.635212	0.130917	5553.548340
9070.007715	1.581910	0.130917	7222.463867
9070.008588	1.537932	0.130917	8565.078125
9070.009465	1.494727	0.130917	9875.953125
9070.010566	1.447093	0.130917	11469.203125
9070.011526	1.406752	0.130917	12819.684570
9070.012395	1.370339	0.130917	14010.509766
9070.013413	0.766414	0.130917	14790.718750
9070.014461	0.092820	0.130917	14887.994141
9070.015346	0.090597	0.130917	14968.172852
9070.016274	0.090560	0.130917	15052.212891
9070.017339	0.090681	0.130917	15148.788086
9070.018285	0.090516	0.130917	15234.416992
9070.019147	0.090615	0.130917	15312.527344
9070.020206	0.090743	0.130917	15408.625000
9070.021230	0.090516	0.130917	15501.313477
9070.022115	0.090641	0.130917	15581.530273
9070.023065	0.090652	0.130917	15667.649414
9071.059420	1.215612	0.183329	560.396912
9071.060491	1.718328	0.183329	2400.725830
9071.061444	1.684109	0.183329	4005.681641
9071.062316	1.637798	0.183329	5433.841309
9071.063352	1.584833	0.183329	7075.728027
9071.064395	1.534644	0.183329	8676.361328
9071.065287	1.492269	0.183329	10007.465820
9071.066246	1.449877	0.183329	11397.897461
9071.067305	1.404646	0.183329	12885.417969
9071.068255	1.365121	0.183329	14182.283203
9071.069126	0.794352	0.183329	14874.164062
9071.070204	0.093076	0.183329	14974.500000
9071.071200	0.090502	0.183329	15064.639648
9071.072085	0.090542	0.183329	15144.769531
9071.073071	0.090677	0.183329	15234.177734
9071.074101	0.090527	0.183329	15327.420898
9071.075009	0.090520	0.183329	15409.613281
9071.075865	0.090509	0.183329	15487.088867
9071.076964	0.090571	0.183329	15586.626953
9071.077966	0.090542	0.183329	15677.349609
9071.078848	0.090560	0.183329	15757.223633
9072.033312	1.280933	0.139763	654.556580
9072.034343	1.719382	0.139763	2427.239746
9072.035230	1.686606	0.139763	3923.259766
9072.036192	1.636655	0.139763	5497.722168
9072.037271	1.581665	0.139763	7204.338867
9072.038187	1.536672	0.139763	8611.930664
